# Format: McCode with text headers
# URL: http://www.mccode.org
# Creator: McStas 2.1rc1 - Mar. 10, 2014
# Instrument: C:/My_Docs/mc/MERLIN_mcstas/merlin_RAEmod.instr
# Ncount: 4000000
# Trace: no
# Gravitation: no
# Seed: 1484151637
# Directory: C:/My_Docs/mc/MERLIN_mcstas/merlin_RAEmod_20170111_162037
# Param: E_min=5
# Param: E_max=5.2
# Param: m=3
# Param: E_foc=80
# Param: nu_hz=200
# Param: type=3
# Param: lchop=0.01
# Param: chop_w=0.0002
# Date: Wed Jan 11 16:20:43 2017 (1484151643)
# type: array_1d(150)
# Source: MERLIN (C:/My_Docs/mc/MERLIN_mcstas/merlin_RAEmod.instr)
# component: TOF_mod
# position: 0 0 0.001
# title: Time-of-flight monitor
# Ncount: 4000000
# filename: mod.m
# statistics: X0=53.0848; dX=22.2856;
# signal: Min=0; Max=571.182; Mean=193.014;
# values: 28952.1 35.4432 667258
# xvar: t
# yvar: (I,I_err)
# xlabel: Time-of-flight [\gms]
# ylabel: Intensity
# xlimits: 0 130
# variables: t I I_err N
0.433333 0 0 0 
1.3 0 0 0 
2.16667 0 0 0 
3.03333 0.130169 0.0751532 3 
3.9 0 0 0 
4.76667 0 0 0 
5.63333 0 0 0 
6.5 0 0 0 
7.36667 0.130169 0.0751532 3 
8.23333 1.43186 0.249255 33 
9.1 3.12406 0.368174 72 
9.96667 6.46507 0.529639 149 
10.8333 10.8908 0.687422 251 
11.7 19.5254 0.920435 450 
12.5667 22.6928 0.992287 523 
13.4333 35.5362 1.24173 819 
14.3 43.2161 1.36936 996 
15.1667 51.1998 1.49049 1180 
16.0333 63.8262 1.66415 1471 
16.9 84.957 1.91996 1958 
17.7667 100.751 2.09083 2322 
18.6333 121.838 2.29924 2808 
19.5 128.477 2.36105 2961 
20.3667 148.349 2.53709 3419 
21.2333 164.404 2.67085 3789 
22.1 173.298 2.74215 3994 
22.9667 194.299 2.90355 4478 
23.8333 215.994 3.06136 4978 
24.7 234.435 3.18936 5403 
25.5667 253.917 3.31924 5852 
26.4333 272.444 3.43821 6279 
27.3 291.883 3.55875 6727 
28.1667 309.716 3.66585 7138 
29.0333 335.055 3.81287 7722 
29.9 345.599 3.87239 7965 
30.7667 393.284 4.13092 9064 
31.6333 397.58 4.15342 9163 
32.5 410.206 4.21885 9454 
33.3667 437.325 4.35608 10079 
34.2333 455.896 4.4476 10507 
35.1 477.634 4.5524 11008 
35.9667 504.796 4.68006 11634 
36.8333 502.843 4.671 11589 
37.7 531.133 4.8006 12241 
38.5667 536.297 4.82387 12360 
39.4333 548.533 4.87859 12642 
40.3 550.919 4.88919 12697 
41.1667 558.816 4.92411 12879 
42.0333 571.182 4.97829 13164 
42.9 565.324 4.9527 13029 
43.7667 565.238 4.95232 13027 
44.6333 546.233 4.86836 12589 
45.5 539.508 4.83829 12434 
46.3667 539.551 4.83849 12435 
47.2333 527.185 4.78272 12150 
48.1 513.43 4.71991 11833 
48.9667 510.87 4.70813 11774 
49.8333 509.742 4.70293 11748 
50.7 472.21 4.52648 10883 
51.5667 469.91 4.51545 10830 
52.4333 468.348 4.50794 10794 
53.3 432.509 4.33202 9968 
54.1667 433.854 4.33875 9999 
55.0333 429.905 4.31896 9908 
55.9 398.187 4.15659 9177 
56.7667 383.261 4.07794 8833 
57.6333 388.121 4.10371 8945 
58.5 375.104 4.03431 8645 
59.3667 340.219 3.84213 7841 
60.2333 341.39 3.84874 7868 
61.1 340.219 3.84213 7841 
61.9667 306.548 3.64706 7065 
62.8333 291.752 3.55796 6724 
63.7 293.141 3.56641 6756 
64.5667 296.091 3.58431 6824 
65.4333 263.289 3.37994 6068 
66.3 266.89 3.40298 6151 
67.1667 263.853 3.38356 6081 
68.0333 263.983 3.3844 6084 
68.9 227.319 3.14059 5239 
69.7667 227.188 3.13969 5236 
70.6333 227.319 3.14059 5239 
71.5 219.508 3.08616 5059 
72.3667 195.774 2.91455 4512 
73.2333 189.049 2.86405 4357 
74.1 195.34 2.91132 4502 
74.9667 191.609 2.88338 4416 
75.8333 177.247 2.77321 4085 
76.7 164.664 2.67296 3795 
77.5667 163.406 2.66273 3766 
78.4333 159.023 2.62678 3665 
79.3 160.889 2.64214 3708 
80.1667 138.24 2.44912 3186 
81.0333 130.863 2.38288 3016 
81.9 129.518 2.3706 2985 
82.7667 132.078 2.39392 3044 
83.6333 133.727 2.40881 3082 
84.5 111.034 2.19494 2559 
85.3667 111.642 2.20093 2573 
86.2333 111.381 2.19836 2567 
87.1 109.906 2.18376 2533 
87.9667 110.687 2.1915 2551 
88.8333 101.098 2.09442 2330 
89.7 91.5523 1.99309 2110 
90.5667 88.5584 1.96023 2041 
91.4333 87.0397 1.94335 2006 
92.3 90.7713 1.98457 2092 
93.1667 89.0357 1.96551 2052 
94.0333 74.1096 1.79321 1708 
94.9 78.1882 1.84189 1802 
95.7667 76.4093 1.82082 1761 
96.6333 78.0147 1.83985 1798 
97.5 75.932 1.81512 1750 
98.3667 70.0744 1.7437 1615 
99.2333 60.6588 1.62233 1398 
100.1 58.4893 1.59306 1348 
100.967 62.4378 1.64595 1439 
101.833 59.1835 1.60248 1364 
102.7 62.6547 1.64881 1444 
103.567 56.5368 1.56624 1303 
104.433 49.2039 1.46114 1134 
105.3 50.5056 1.48035 1164 
106.167 48.206 1.44625 1111 
107.033 49.6378 1.46757 1144 
107.9 48.2493 1.4469 1112 
108.767 48.77 1.45469 1124 
109.633 38.7036 1.29589 892 
110.5 41.2636 1.33806 951 
111.367 41.1768 1.33666 949 
112.233 40.309 1.3225 929 
113.1 41.0033 1.33384 945 
113.967 41.4806 1.34158 956 
114.833 35.8399 1.24703 826 
115.7 28.8541 1.11892 665 
116.567 30.9369 1.15859 713 
117.433 31.3274 1.16588 722 
118.3 31.5009 1.16911 726 
119.167 31.0236 1.16022 715 
120.033 31.6311 1.17152 729 
120.9 29.3314 1.12813 676 
121.767 24.9057 1.03954 574 
122.633 26.2508 1.06725 605 
123.5 25.7301 1.05661 593 
124.367 24.0813 1.02219 555 
125.233 26.2074 1.06636 604 
126.1 22.7796 0.994183 525 
126.967 25.4264 1.05035 586 
127.833 21.3043 0.961452 491 
128.7 21.8684 0.974096 504 
129.567 20.5667 0.944661 474 
